# Optical absorption spectrum of Program fragment delivered error ``Can't call method "sample_" on an undefined value at abs.template line 1.'':YLF (Ho:LiYF4)
# assuming unity concentration per meter.  This data was part of the NASA 
# Laser Spectra Database found on the web until December of 2005 which
# was created by Pat Cross working at NASA Langley Research Center, Internal
# Operations Group, Aerospace Electronics Systems Division, Remote Sensing.
#
# The spectra was collected by BMW on 27 April 1993 and was 
# annotated on 27 April 1993.  The sample name was "" was a 4.9200
# long piece of :.   
# The incident light was unpolarized.
#
# Spectra were recorded from 520 to 570nm
# every 0.1nm at room temperature.
#
# FILE NAME ON PC = BR258.SP NO_POINTS = 501. pts DATA_INTV = .000100 æm MIN_LAMBDA = .520000 æm MIN_DATA = .61300 MAX_LAMBDA = .570000 æm MAX_DATA = .92000 SCANSPEED = 15.000000 NM/MIN SLITWIDTH= .20000 NM RESP TIME = .5 sec SENSITIVITY = 5 DATE=93/04/27 OSU SAMPLE--CONC CORRECTED .44%.
#
##Wavelength (nm)	Absorbance (/meter) 
520	1
520.1	330
520.2	214
520.3	108
520.4	245
520.5	134
520.6	124
520.7	216
520.8	226
520.9	242
521	247
521.1	344
521.2	279
521.3	284
521.4	229
521.5	117
521.6	194
521.7	27
521.8	179
521.9	287
522	292
522.1	343
522.2	232
522.3	217
522.4	309
522.5	406
522.6	193
522.7	285
522.8	316
522.9	184
523	199
523.1	129
523.2	358
523.3	287
523.4	105
523.5	456
523.6	278
523.7	288
523.8	147
523.9	254
524	264
524.1	47
524.2	377
524.3	326
524.4	174
524.5	241
524.6	256
524.7	237
524.8	278
524.9	375
525	278
525.1	137
525.2	452
525.3	310
525.4	382
525.5	581
525.6	617
525.7	434
525.8	358
525.9	348
526	491
526.1	384
526.2	426
526.3	548
526.4	523
526.5	534
526.6	371
526.7	611
526.8	561
526.9	530
527	500
527.1	495
527.2	583
527.3	471
527.4	717
527.5	492
527.6	861
527.7	533
527.8	872
527.9	473
528	914
528.1	678
528.2	433
528.3	838
528.4	685
528.5	583
528.6	629
528.7	773
528.8	830
528.9	918
529	892
529.1	785
529.2	422
529.3	565
529.4	632
529.5	720
529.6	515
529.7	720
529.8	680
529.9	721
530	865
530.1	768
530.2	728
530.3	523
530.4	759
530.5	708
530.6	1033
530.7	1105
530.8	838
530.9	864
531	638
531.1	695
531.2	896
531.3	809
531.4	717
531.5	1021
531.6	908
531.7	985
531.8	1151
531.9	1131
532	1302
532.1	1168
532.2	1360
532.3	1267
532.4	1543
532.5	1175
532.6	1440
532.7	1534
532.8	1498
532.9	1509
533	1436
533.1	1661
533.2	1919
533.3	1898
533.4	2390
533.5	2237
533.6	2786
533.7	2905
533.8	3631
533.9	4871
534	5761
534.1	7303
534.2	8635
534.3	9532
534.4	9514
534.5	8660
534.6	8309
534.7	8473
534.8	8832
534.9	10386
535	12415
535.1	12654
535.2	10432
535.3	7699
535.4	6163
535.5	5584
535.6	6135
535.7	6285
535.8	6072
535.9	5946
536	6530
536.1	7133
536.2	7894
536.3	7530
536.4	7442
536.5	7513
536.6	7460
536.7	7556
536.8	8034
536.9	9561
537	12291
537.1	14635
537.2	17990
537.3	18515
537.4	15314
537.5	10911
537.6	7929
537.7	7028
537.8	5764
537.9	4999
538	5236
538.1	5492
538.2	7295
538.3	9313
538.4	9418
538.5	8239
538.6	7060
538.7	6750
538.8	6914
538.9	8156
539	10923
539.1	15047
539.2	17701
539.3	17311
539.4	14279
539.5	10537
539.6	7793
539.7	6197
539.8	4917
539.9	4426
540	4012
540.1	3825
540.2	3842
540.3	4217
540.4	5178
540.5	5167
540.6	4479
540.7	4285
540.8	4357
540.9	5248
541	7282
541.1	8485
541.2	9293
541.3	10474
541.4	10684
541.5	9048
541.6	6239
541.7	5059
541.8	3793
541.9	3276
542	3282
542.1	3207
542.2	3473
542.3	3604
542.4	4203
542.5	4781
542.6	5572
542.7	6231
542.8	6673
542.9	6031
543	6083
543.1	6181
543.2	6187
543.3	6616
543.4	6868
543.5	6640
543.6	6062
543.7	5457
543.8	4910
543.9	4525
544	4347
544.1	4121
544.2	3546
544.3	3231
544.4	2396
544.5	2322
544.6	1989
544.7	1842
544.8	1790
544.9	1817
545	1801
545.1	2329
545.2	2431
545.3	2993
545.4	3187
545.5	3009
545.6	3074
545.7	2550
545.8	2374
545.9	2084
546	2221
546.1	1811
546.2	2360
546.3	2297
546.4	1991
546.5	2282
546.6	1834
546.7	1593
546.8	1443
546.9	993
547	936
547.1	1060
547.2	1076
547.3	794
547.4	1056
547.5	918
547.6	790
547.7	862
547.8	914
547.9	1033
548	1411
548.1	1354
548.2	1646
548.3	1573
548.4	1736
548.5	1195
548.6	1226
548.7	1774
548.8	1879
548.9	1774
549	1911
549.1	2012
549.2	1797
549.3	1939
549.4	1625
549.5	1256
549.6	1500
549.7	1345
549.8	1705
549.9	1601
550	1403
550.1	1523
550.2	1134
550.3	1114
550.4	857
550.5	857
550.6	438
550.7	485
550.8	618
550.9	603
551	430
551.1	359
551.2	405
551.3	319
551.4	518
551.5	330
551.6	315
551.7	631
551.8	250
551.9	321
552	760
552.1	414
552.2	302
552.3	308
552.4	389
552.5	675
552.6	283
552.7	304
552.8	590
552.9	82
553	321
553.1	499
553.2	114
553.3	185
553.4	317
553.5	110
553.6	470
553.7	191
553.8	197
553.9	182
554	502
554.1	376
554.2	340
554.3	204
554.4	331
554.5	98
554.6	1
554.7	236
554.8	267
554.9	216
555	156
555.1	237
555.2	441
555.3	558
555.4	56
555.5	92
555.6	42
555.7	42
555.8	301
555.9	185
556	109
556.1	282
556.2	343
556.3	303
556.4	237
556.5	451
556.6	21
556.7	294
556.8	508
556.9	209
557	32
557.1	301
557.2	530
557.3	256
557.4	140
557.5	54
557.6	25
557.7	349
557.8	288
557.9	1
558	172
558.1	67
558.2	153
558.3	27
558.4	93
558.5	306
558.6	362
558.7	125
558.8	241
558.9	460
559	343
559.1	578
559.2	258
559.3	676
559.4	523
559.5	285
559.6	458
559.7	504
559.8	235
559.9	505
560	281
560.1	1
560.2	90
560.3	80
560.4	308
560.5	532
560.6	238
560.7	16
560.8	1
560.9	244
561	550
561.1	326
561.2	347
561.3	556
561.4	287
561.5	176
561.6	1
561.7	268
561.8	212
561.9	56
562	609
562.1	391
562.2	569
562.3	103
562.4	1
562.5	311
562.6	332
562.7	29
562.8	226
562.9	40
563	293
563.1	364
563.2	294
563.3	46
563.4	1
563.5	274
563.6	687
563.7	220
563.8	109
563.9	357
564	1
564.1	348
564.2	85
564.3	111
564.4	298
564.5	354
564.6	319
564.7	1
564.8	2
564.9	305
565	356
565.1	240
565.2	311
565.3	215
565.4	1
565.5	1
565.6	1
565.7	192
565.8	126
565.9	142
566	132
566.1	97
566.2	199
566.3	103
566.4	331
566.5	119
566.6	150
566.7	170
566.8	302
566.9	363
567	35
567.1	31
567.2	56
567.3	1
567.4	67
567.5	153
567.6	331
567.7	174
567.8	159
567.9	428
568	1
568.1	75
568.2	1
568.3	75
568.4	121
568.5	132
568.6	61
568.7	218
568.8	1
568.9	169
569	1
569.1	83
569.2	1
569.3	104
569.4	69
569.5	14
569.6	364
569.7	278
569.8	162
569.9	273
570	67
