# Optical absorption spectrum of Program fragment delivered error ``Can't call method "sample_" on an undefined value at abs.template line 1.'':YLF (Ho:LiYF4)
# assuming unity concentration per meter.  This data was part of the NASA 
# Laser Spectra Database found on the web until December of 2005 which
# was created by Pat Cross working at NASA Langley Research Center, Internal
# Operations Group, Aerospace Electronics Systems Division, Remote Sensing.
#
# The spectra was collected by BMW on 27 April 1993 and was 
# annotated on 27 April 1993.  The sample name was "" was a 4.9200
# long piece of :.   
# The incident light was unpolarized.
#
# Spectra were recorded from 520 to 570nm
# every 0.1nm at room temperature.
#
# FILE NAME ON PC = BR257.SP NO_POINTS = 501. pts DATA_INTV = .000100 æm MIN_LAMBDA = .520000 æm MIN_DATA = .15430 MAX_LAMBDA = .570000 æm MAX_DATA = .91790 SCANSPEED = 15.000000 NM/MIN SLITWIDTH= .20000 NM RESP TIME = .5 sec SENSITIVITY = 5 DATE=93/04/27 OSU SAMPLE--CONC CORRECTED .44%.
#
##Wavelength (nm)	Absorbance (/meter) 
520	127
520.1	266
520.2	364
520.3	74
520.4	422
520.5	244
520.6	306
520.7	185
520.8	129
520.9	105
521	238
521.1	439
521.2	296
521.3	302
521.4	303
521.5	253
521.6	315
521.7	10
521.8	189
521.9	323
522	344
522.1	273
522.2	551
522.3	459
522.4	450
522.5	333
522.6	135
522.7	309
522.8	203
522.9	480
523	522
523.1	277
523.2	206
523.3	345
523.4	310
523.5	316
523.6	292
523.7	333
523.8	247
523.9	489
524	122
524.1	265
524.2	697
524.3	451
524.4	380
524.5	520
524.6	433
524.7	805
524.8	312
524.9	677
525	498
525.1	643
525.2	830
525.3	655
525.4	718
525.5	713
525.6	1014
525.7	664
525.8	793
525.9	903
526	1007
526.1	822
526.2	880
526.3	772
526.4	850
526.5	970
526.6	821
526.7	1128
526.8	1181
526.9	1046
527	1063
527.1	1058
527.2	1179
527.3	1029
527.4	1061
527.5	1171
527.6	1292
527.7	1048
527.8	1221
527.9	1014
528	1238
528.1	1343
528.2	1167
528.3	1324
528.4	1435
528.5	1242
528.6	1457
528.7	1265
528.8	1501
528.9	1361
529	1288
529.1	1014
529.2	1222
529.3	1036
529.4	1496
529.5	1116
529.6	1231
529.7	1175
529.8	1254
529.9	1145
530	1412
530.1	1387
530.2	1367
530.3	1310
530.4	1405
530.5	1694
530.6	1790
530.7	1738
530.8	1497
530.9	1719
531	1515
531.1	1747
531.2	1827
531.3	2257
531.4	1902
531.5	2280
531.6	2227
531.7	2159
531.8	2266
531.9	2529
532	2674
532.1	2643
532.2	2800
532.3	3120
532.4	3050
532.5	3116
532.6	3564
532.7	3422
532.8	3554
532.9	3797
533	3952
533.1	4396
533.2	4722
533.3	4622
533.4	5356
533.5	5477
533.6	6150
533.7	6622
533.8	7271
533.9	8608
534	10003
534.1	11708
534.2	13772
534.3	16363
534.4	19717
534.5	23696
534.6	28481
534.7	35557
534.8	46352
534.9	59170
535	68496
535.1	74773
535.2	81742
535.3	82071
535.4	64463
535.5	44609
535.6	33094
535.7	27213
535.8	22431
535.9	17710
536	14000
536.1	11401
536.2	9815
536.3	9460
536.4	9842
536.5	12017
536.6	14996
536.7	20245
536.8	30318
536.9	42591
537	52827
537.1	50549
537.2	39136
537.3	29395
537.4	22717
537.5	18473
537.6	16348
537.7	15470
537.8	17084
537.9	21311
538	24452
538.1	20945
538.2	14821
538.3	10553
538.4	8209
538.5	6746
538.6	6003
538.7	5545
538.8	5358
538.9	5416
539	5326
539.1	5950
539.2	6101
539.3	6794
539.4	6918
539.5	7762
539.6	9801
539.7	12554
539.8	12714
539.9	9822
540	7408
540.1	6028
540.2	5764
540.3	5622
540.4	6517
540.5	7377
540.6	9828
540.7	12291
540.8	12790
540.9	11722
541	10627
541.1	9576
541.2	8288
541.3	7425
541.4	6212
541.5	5319
541.6	4560
541.7	4427
541.8	3748
541.9	3475
542	3356
542.1	3712
542.2	4991
542.3	5805
542.4	5486
542.5	5073
542.6	4318
542.7	4158
542.8	4275
542.9	4482
543	5349
543.1	6146
543.2	6460
543.3	6940
543.4	7224
543.5	7665
543.6	8176
543.7	7571
543.8	6308
543.9	5158
544	4297
544.1	3581
544.2	3391
544.3	2755
544.4	2312
544.5	2239
544.6	1996
544.7	2028
544.8	1966
544.9	1898
545	1978
545.1	2185
545.2	2388
545.3	2426
545.4	2465
545.5	2269
545.6	2285
545.7	1895
545.8	1822
545.9	2028
546	2056
546.1	1840
546.2	2110
546.3	1974
546.4	1591
546.5	1477
546.6	1520
546.7	1177
546.8	1230
546.9	1023
547	870
547.1	819
547.2	1171
547.3	1094
547.4	1219
547.5	1003
547.6	1050
547.7	1206
547.8	1431
547.9	1547
548	1946
548.1	1753
548.2	1565
548.3	1482
548.4	1629
548.5	1468
548.6	1962
548.7	1879
548.8	2138
548.9	2314
549	3086
549.1	2759
549.2	2530
549.3	2005
549.4	1822
549.5	1613
549.6	1374
549.7	1125
549.8	1443
549.9	1319
550	1560
550.1	1316
550.2	1645
550.3	1730
550.4	1500
550.5	1800
550.6	1149
550.7	938
550.8	1145
550.9	1182
551	571
551.1	531
551.2	486
551.3	630
551.4	712
551.5	606
551.6	433
551.7	633
551.8	353
551.9	502
552	718
552.1	407
552.2	448
552.3	500
552.4	358
552.5	660
552.6	682
552.7	346
552.8	760
552.9	393
553	552
553.1	329
553.2	51
553.3	402
553.4	668
553.5	353
553.6	196
553.7	217
553.8	310
553.9	366
554	520
554.1	470
554.2	655
554.3	299
554.4	274
554.5	204
554.6	164
554.7	256
554.8	328
554.9	283
555	26
555.1	326
555.2	266
555.3	516
555.4	318
555.5	299
555.6	345
555.7	179
555.8	357
555.9	318
556	106
556.1	289
556.2	305
556.3	601
556.4	261
556.5	690
556.6	1
556.7	656
556.8	280
556.9	448
557	490
557.1	338
557.2	461
557.3	107
557.4	544
557.5	545
557.6	297
557.7	460
557.8	309
557.9	157
558	244
558.1	1
558.2	531
558.3	277
558.4	212
558.5	163
558.6	361
558.7	393
558.8	521
558.9	323
559	400
559.1	452
559.2	377
559.3	638
559.4	333
559.5	303
559.6	533
559.7	274
559.8	642
559.9	474
560	409
560.1	532
560.2	147
560.3	97
560.4	468
560.5	587
560.6	338
560.7	344
560.8	41
560.9	376
561	570
561.1	694
561.2	409
561.3	344
561.4	51
561.5	371
561.6	250
561.7	216
561.8	572
561.9	354
562	625
562.1	458
562.2	372
562.3	363
562.4	30
562.5	583
562.6	188
562.7	98
562.8	225
562.9	460
563	562
563.1	471
563.2	559
563.3	478
563.4	433
563.5	705
563.6	496
563.7	436
563.8	315
563.9	816
564	423
564.1	521
564.2	619
564.3	365
564.4	224
564.5	113
564.6	271
564.7	242
564.8	1
564.9	208
565	442
565.1	286
565.2	439
565.3	506
565.4	379
565.5	1
565.6	1
565.7	601
565.8	363
565.9	358
566	212
566.1	284
566.2	234
566.3	362
566.4	556
566.5	212
566.6	665
566.7	712
566.8	442
566.9	453
567	1
567.1	262
567.2	157
567.3	259
567.4	33
567.5	306
567.6	140
567.7	308
567.8	532
567.9	508
568	555
568.1	479
568.2	485
568.3	481
568.4	477
568.5	259
568.6	422
568.7	372
568.8	282
568.9	384
569	279
569.1	411
569.2	104
569.3	494
569.4	292
569.5	420
569.6	594
569.7	590
569.8	616
569.9	545
570	506
