  11100 17  1 01NYLF5.SP PNYLF5 MS  .0000 A S1 010588 00.01   1         
  PROGRAM PE-CONVERT     VER 02.30                                      
  USER MS  DATE & TIME  1988 01 28 16.41 53.09    4.1000    295K A      
 AU1 ND 100     0     0 YLF             0.325000 - 0.830000 .00020       
 FILE NAME ON PE-3600 = 001 NYLF5.SP      ON PC = 001NYLF5.SP            
 NO_POINTS  =  2526.    pts   DATA_INTV = 0.000200 µm                    
 MIN_LAMBDA =  0.325000 µm     MIN_DATA =      0.                        
 MAX_LAMBDA =  0.830000 µm     MAX_DATA =  34350.0                       
 SCANSPEED  = .015      µm/min SLITWIDTH=  0.00010 µmITA =   0.          
       RESP =   1.0     sec        ISMS =   0.       DATE=88/01/05       
       INST = 509.                    ? =   0.                           
 POLARIZED ND:YLF SPECTRA. CRYSTALS FROM AIRTRON.                        
 PLASTIC POLARIZERS USED. ONLY 95% POLARIZED AT 810NM.                   
 MORE POL. AT SHORTER WAVELENGTHS TO 400. LESS POLARIZED                 
 LONGER THAN 810NM AND SHORTER THAN 400NM. STORM                         
 converted by Mark Storm.  header added by hand.                         
 ND:YLF,AIRTRON,.162 IN THICK,A-AXIS,PERP. TO AWIND                      
  EOH     (1X,F11.4)                                                     
  2526.           
   1609.5394      
   1568.8596      
   1821.2465      
   1638.4604      
   1523.0635      
   1884.6511      
   2622.5999      
   1960.8770      
   1804.0718      
   1962.7505      
   2203.3257      
   2222.3567      
   1964.8412      
   1998.0248      
   2103.1646      
   1921.1348      
   2486.8591      
   2626.4790      
   1831.8820      
   1362.3206      
   2110.2271      
   2117.6462      
   1737.4944      
   1887.1437      
   1736.5016      
   1647.4972      
   1592.6411      
   1379.4073      
   1206.8650      
   1546.7784      
   1616.0638      
   1784.8512      
    507.0819      
    191.0011      
    323.3940      
    809.0307      
   1178.0229      
    918.9501      
   1015.3770      
    870.0283      
    740.5157      
    417.3987      
    783.1835      
    582.3184      
    541.9677      
    377.9385      
    379.4849      
    822.4348      
    428.2433      
    329.1623      
    100.1469      
    451.7165      
    261.5786      
      0.0000      
      0.0000      
     73.3162      
    616.0958      
    512.2043      
    748.2555      
    332.5118      
     98.1737      
    513.0005      
    134.4053      
    145.2307      
    617.6852      
    542.1346      
    850.8412      
    818.2324      
   1054.4972      
    147.7361      
    131.9911      
    568.9807      
    585.4062      
    624.8622      
    235.2346      
    445.6937      
    723.1982      
    610.7324      
    212.0122      
    455.8812      
    507.2576      
    561.4459      
    608.9799      
    563.1766      
   1411.8199      
    754.8643      
    257.5368      
    320.5344      
   1127.3881      
    763.7921      
   1534.9988      
    505.2911      
    980.5976      
    825.9323      
    873.9774      
    759.4630      
    625.1530      
    843.0751      
    745.0383      
    895.4419      
   1186.3903      
   1102.1578      
   1066.4493      
   1658.6492      
   1847.5367      
   2456.3164      
   3068.6887      
   3308.1345      
   4174.8960      
   5018.3765      
   5508.4233      
   4773.4282      
   3402.9734      
   3791.8125      
   2980.4514      
   2710.5969      
   2296.7383      
   2715.3811      
   3040.9146      
   3112.9861      
   3086.1787      
   2667.4370      
   4150.7739      
   4625.0850      
   6574.7300      
   7420.9131      
   6452.6489      
   6456.2646      
   6606.5635      
   5387.9854      
   4394.4131      
   3395.7002      
   3630.6780      
   3536.0452      
   3003.3667      
   2862.1021      
   3112.9536      
   3548.9453      
   3337.8008      
   3465.4563      
   3586.1331      
   2632.6404      
   2280.9612      
   2952.7014      
   2936.4878      
   2734.9978      
   2887.7390      
   4509.8130      
   4913.5054      
   3759.5244      
   3863.0884      
   4590.0186      
   5373.7959      
   9305.7305      
  14340.1025      
   9523.5381      
   8803.0410      
   7550.1631      
   4941.0171      
   3645.9583      
   2492.1289      
   2435.3467      
   3118.8120      
   3094.9883      
   1942.0662      
   1396.6838      
   1734.6074      
   1662.6044      
   1079.1912      
   1166.4203      
    977.6426      
    761.7052      
     85.0615      
    468.3192      
    402.6455      
    149.1978      
    513.2361      
    636.3565      
    342.9792      
    828.4311      
    804.0252      
    143.5119      
    479.1704      
     45.7890      
    281.1031      
      0.0000      
      0.0000      
     86.1147      
    248.3770      
    343.3716      
      0.0000      
    296.8853      
    437.7045      
      0.0000      
      0.0000      
    156.3198      
      0.0000      
     88.9890      
    152.7980      
    538.4050      
      6.1538      
      0.0000      
      0.0000      
      0.0000      
    401.9534      
      0.0000      
     90.3603      
    142.2170      
    306.1658      
    326.3655      
    239.7500      
      0.0000      
    226.7275      
    333.6530      
    103.4823      
     45.3998      
     74.6476      
    456.2761      
    760.7910      
     40.7049      
    856.5577      
    455.5224      
    399.2761      
      0.0000      
      4.4634      
    248.6329      
    373.0537      
      0.0000      
    608.9223      
     89.7933      
    495.8514      
    762.6927      
    590.5717      
    118.1971      
    271.2736      
      0.0000      
      0.0000      
      0.0000      
    965.9948      
    332.0961      
      0.0000      
    284.2843      
    437.0581      
     66.6545      
    927.0743      
    153.0729      
      0.0000      
    372.0427      
      0.0000      
    560.5718      
    462.3735      
     75.7161      
    650.2440      
    575.9842      
     24.5826      
    585.7185      
    480.6920      
    234.5287      
      0.0000      
      0.0000      
      0.0000      
      0.0000      
   1170.5725      
    859.9324      
    318.2068      
      0.0000      
   1410.3226      
      0.0000      
    905.7475      
      0.0000      
    863.6179      
    293.7798      
     23.0840      
     50.9610      
    127.8778      
      0.0000      
      0.0000      
      0.0000      
    104.5575      
    349.6479      
      0.0000      
     95.6876      
    155.4772      
    524.7394      
    303.5263      
    600.5890      
      0.0000      
    358.7350      
    560.4617      
    479.7538      
     61.1467      
    156.6606      
    211.2746      
    507.1918      
    395.8132      
    260.9350      
      0.0000      
    150.8041      
      0.0000      
      0.0000      
    290.9245      
    285.7157      
    450.5215      
    255.3012      
    453.4647      
     71.0169      
    142.6708      
    133.5143      
      0.0000      
    321.4521      
    359.0217      
    137.9981      
     86.4578      
    344.6840      
    358.1887      
    147.7879      
    142.6061      
    367.9321      
     40.9352      
     18.6128      
     99.3714      
    161.8061      
     62.5747      
    344.5937      
    590.6993      
    421.1921      
      0.0000      
    139.9907      
    255.7689      
    392.1863      
    361.5084      
    246.8088      
      0.0000      
    259.0439      
    171.3698      
    239.3051      
    203.5010      
      0.0000      
      0.0000      
    274.4334      
    377.4478      
    376.2287      
     67.6574      
      0.0000      
     97.0023      
    124.9379      
     93.2709      
    187.5412      
    367.6935      
     55.2733      
    146.7445      
    257.2043      
    116.4919      
     57.0693      
    236.2480      
      0.0000      
    101.0709      
      0.0000      
      0.0000      
     22.1161      
     61.8533      
      0.0000      
      0.0000      
     62.2018      
      0.0000      
      0.0000      
      0.0000      
    287.0697      
    186.0125      
      0.0000      
     94.7519      
     98.8378      
     98.9522      
     71.2833      
      0.0000      
     26.5987      
     31.9912      
     66.4507      
      0.0000      
      0.0000      
     33.7658      
     31.2380      
      0.0000      
      0.0000      
      0.0000      
      6.6197      
     42.3610      
    153.6500      
    132.5453      
      0.0000      
    165.9247      
    340.5240      
     99.8758      
     48.4209      
      0.0000      
      0.0000      
      0.0000      
      0.0000      
    311.9065      
     23.9971      
      0.0000      
      0.0000      
      0.0000      
      0.0000      
     81.3468      
     93.3599      
    246.1126      
    204.9774      
    179.8451      
      0.0000      
      0.0000      
     83.4241      
      0.0000      
      0.0000      
     12.4299      
     41.5665      
     94.5425      
      0.0000      
      0.0000      
      0.0000      
      0.0000      
      0.0000      
      0.0000      
      0.0000      
    145.7234      
      0.0000      
      0.0000      
      0.0000      
     37.6589      
    182.0750      
    316.6624      
    194.2361      
      0.0000      
      0.0000      
    144.1159      
    303.8329      
      0.0000      
     29.3572      
     16.2679      
    106.2166      
      0.0000      
      0.0000      
      0.0000      
      0.0000      
      0.0000      
      0.0000      
      0.0000      
      0.0000      
      0.0000      
     74.1670      
     28.0460      
     83.6243      
      0.0000      
      0.0000      
     41.6475      
      0.0000      
     41.8482      
      0.0000      
      0.0000      
    105.5952      
     91.1395      
      0.0000      
      0.0000      
      8.2450      
      0.0000      
    294.8617      
    223.0411      
      0.0000      
    183.3738      
    139.6957      
     23.4415      
    182.3389      
      0.0000      
      0.0000      
      0.0000      
      0.0000      
    121.8324      
      0.0000      
      0.0000      
     95.6515      
      0.0000      
      0.0000      
      0.0000      
    117.2119      
    207.5105      
     92.2624      
      0.0000      
      0.0000      
      0.0000      
      0.0000      
      0.0000      
      0.0000      
    151.1966      
     65.2634      
      0.0000      
     81.3115      
      0.0000      
     48.4710      
    142.4847      
    175.7355      
    295.5650      
    197.1671      
    262.4326      
     71.4891      
     83.4805      
    124.5924      
      0.0000      
    274.8902      
    264.3251      
    240.4540      
    135.6535      
    324.6120      
   1576.6742      
   3093.1301      
    766.8156      
      0.0000      
    120.3110      
      0.0000      
      0.0000      
     88.8300      
    249.4491      
    134.0122      
    208.4027      
     50.8750      
    363.2151      
    501.4340      
      0.0000      
      0.0000      
     35.4911      
      0.0000      
     33.0303      
      6.7513      
      0.0000      
      0.0000      
    110.0267      
    124.6769      
     89.0379      
     75.9104      
      0.0000      
      0.0000      
      0.0000      
      0.0000      
      0.0000      
     60.5886      
      0.0000      
      0.0000      
      0.0000      
      0.0000      
      0.0000      
      0.0000      
      0.0000      
      0.0000      
      0.0000      
      0.0000      
      0.0000      
      0.0000      
      0.0000      
      0.0000      
      0.0000      
      0.0000      
      0.0000      
      0.0000      
      0.0000      
      0.0000      
      0.0000      
      0.0000      
      0.0000      
      0.0000      
      0.0000      
      0.0000      
     16.7406      
     31.3304      
      0.0000      
      0.0000      
    113.4962      
      0.0000      
      0.0000      
      0.0000      
      0.0000      
      6.9552      
      0.0000      
      0.0000      
      0.0000      
     21.7879      
     74.6615      
      0.0000      
      0.0000      
      0.0000      
      0.0000      
      0.0000      
      0.0000      
      0.0000      
      0.0000      
      0.0000      
      0.0000      
      0.0000      
      0.0000      
      0.0000      
      0.0000      
    103.6583      
     28.4575      
    128.9671      
      0.0000      
      0.0000      
      0.0000      
    125.3180      
     52.6930      
      0.0000      
      0.0000      
      0.0000      
      0.0000      
      0.0000      
    131.1755      
     21.5936      
    144.5812      
    167.1952      
      0.0000      
      8.7355      
    164.7809      
     32.6204      
      0.0000      
     10.3682      
    112.1156      
    255.5107      
      0.0000      
     54.2037      
      0.0000      
    103.2467      
    176.1781      
    136.4914      
    256.0589      
    237.5112      
    149.9733      
     98.4251      
     20.6113      
    220.5379      
    186.0875      
    131.8159      
     73.7011      
    178.3565      
    347.5022      
    296.8683      
    390.4416      
    585.3336      
    580.0140      
    728.8949      
    639.5796      
    788.8259      
    965.0039      
    973.3015      
   1232.4110      
   1347.7295      
   1445.4216      
   1304.7744      
   1163.5527      
    980.6100      
    775.9062      
    800.4665      
    880.9620      
    893.3268      
    740.8862      
    739.6049      
    774.9976      
    737.0389      
    693.7184      
    684.3106      
    786.1729      
    911.6888      
    991.1788      
    823.1407      
   1033.8799      
   1233.9808      
   1116.5994      
   1098.7574      
    982.0226      
    988.9511      
    991.7676      
    991.8408      
    587.9502      
    671.8007      
    770.8862      
    581.4255      
    492.6542      
    545.1852      
    280.0862      
    437.8438      
    533.2875      
    400.4778      
    448.7864      
    383.2285      
    552.4254      
    360.6425      
    497.4059      
    540.5206      
    612.0493      
    572.9958      
    519.2039      
    485.6722      
    402.6059      
    262.5209      
    242.6368      
    192.2235      
     12.4674      
     62.6509      
    147.3547      
    165.9778      
    277.6616      
    353.7601      
    363.1852      
    295.1912      
    238.0212      
    330.0061      
    327.4064      
    376.9036      
    512.4027      
    314.2751      
    337.0294      
    497.8254      
    708.4355      
    800.8517      
    949.6800      
    905.9801      
    608.6141      
    340.1837      
    147.4202      
    447.3650      
    347.0641      
    533.4777      
    281.8509      
    353.9488      
    312.6397      
    354.0851      
    255.4983      
    445.2302      
    323.5829      
    259.6942      
    294.3838      
    323.7859      
    357.2317      
    598.9748      
    502.0843      
    565.3990      
    487.4387      
    433.8380      
    475.4885      
    742.8256      
   1032.3448      
   1896.3451      
   3579.6716      
   2903.1074      
   2341.7117      
   1783.0356      
   1135.9735      
    502.9515      
    632.3795      
    544.7810      
    578.5275      
    585.3344      
    651.5659      
    996.1483      
   1036.0184      
   1341.5618      
   2177.8496      
   3073.6758      
   3538.0725      
   2523.0664      
   1521.9834      
   1044.7183      
    648.1621      
    493.2495      
    602.3696      
    614.5823      
    713.4030      
    527.1146      
    350.2523      
    250.3601      
    354.3884      
    237.1927      
    233.2686      
      0.0000      
    140.5356      
    104.8784      
    196.3380      
     29.7604      
      0.0000      
    221.7557      
     85.3712      
      0.0000      
      0.0000      
      0.0000      
      0.0000      
     32.9037      
      0.0000      
      0.0000      
      6.7435      
    125.6022      
    169.3700      
      0.0000      
      0.0000      
    128.4993      
      0.0000      
      0.0000      
      0.0000      
     69.2722      
     99.7143      
      0.0000      
      0.0000      
    106.5107      
    199.2956      
    259.1508      
      0.0000      
      0.0000      
    162.4101      
      0.0000      
      0.0000      
      0.0000      
      0.0000      
      0.0000      
      0.0000      
      0.0000      
      0.0000      
      0.0000      
      0.0000      
      0.0000      
      0.0000      
    175.1294      
     93.1306      
      6.1390      
      0.0000      
     23.3826      
      0.0000      
      0.0000      
      2.4907      
     22.3030      
      1.2937      
      7.9338      
     11.9444      
      0.0000      
     13.3822      
     95.2300      
     42.4915      
     20.1454      
     10.9850      
     25.5328      
     33.4985      
    197.5443      
     16.4897      
    234.8441      
    105.0126      
    226.9893      
     83.9884      
    274.9800      
    164.8051      
    204.6499      
    195.4174      
    241.9587      
    311.2381      
    422.1938      
    395.4836      
    445.0868      
    572.8184      
    617.3837      
    614.7413      
    716.2410      
    700.0383      
    751.6212      
    855.0587      
    921.9985      
    904.2917      
    897.5227      
   1192.9397      
   1166.7496      
   1193.0538      
   1121.3459      
   1216.6740      
   1409.7932      
   1302.7137      
   1375.0696      
   1262.5985      
   1254.3405      
   1314.0479      
   1347.4629      
   1303.0529      
   1222.7184      
   1196.4978      
   1138.5676      
   1175.8829      
   1336.6753      
   1207.7828      
   1153.9644      
   1252.1866      
   1271.6459      
   1266.1569      
   1313.3885      
   1295.3939      
   1405.3391      
   1369.1731      
   1539.6536      
   1441.7788      
   1352.6405      
   1236.1223      
   1394.5199      
   1425.2511      
   1504.9630      
   1576.5146      
   1907.3177      
   1914.4901      
   2244.1672      
   2452.8833      
   3042.1023      
   3271.3301      
   3638.3228      
   3696.4990      
   3118.4736      
   2547.9875      
   2324.0872      
   1888.0015      
   1716.6055      
   1750.5724      
   1619.4843      
   1747.8502      
   1990.8650      
   2305.6553      
   2687.6563      
   3099.6313      
   3636.0222      
   3948.1550      
   4338.1108      
   4556.0913      
   4554.5562      
   4306.8486      
   4186.2998      
   3555.5708      
   3219.9504      
   2866.6792      
   2692.7043      
   2670.7236      
   2524.3936      
   2415.2319      
   2318.1335      
   2489.5493      
   2459.0151      
   2747.5056      
   2635.8789      
   2654.9998      
   2504.3899      
   2330.0789      
   2576.0500      
   2482.6812      
   2418.7126      
   2321.6021      
   2022.4541      
   1973.9458      
   2237.9570      
   2069.8337      
   2493.2463      
   2652.6882      
   2522.5171      
   2433.7144      
   2300.3669      
   2114.5898      
   2068.7634      
   1796.7556      
   1748.6947      
   1700.7284      
   1828.0914      
   1562.9515      
   1634.6599      
   1637.5222      
   1860.9363      
   1876.6150      
   2066.4082      
   2467.8936      
   2805.1353      
   3422.6184      
   4479.3452      
   6557.6792      
  10322.0947      
  16331.2314      
  20164.4219      
  16819.4121      
  12827.4131      
  12285.8262      
  12086.3643      
   8414.1152      
   5486.9692      
   3841.6445      
   3083.4666      
   2484.7166      
   2287.4260      
   2189.4021      
   2247.0940      
   2508.2371      
   3103.1824      
   4001.2085      
   6084.6182      
   9446.9346      
   9924.5479      
   9456.7246      
   8411.1426      
   8396.3350      
   7947.5591      
   6244.2104      
   4672.8027      
   3667.5703      
   3036.6211      
   2513.3005      
   2273.8645      
   1961.0657      
   1643.7844      
   1624.1362      
   1755.3267      
   2022.6528      
   2233.7483      
   2855.9265      
   3966.6006      
   3761.6155      
   3257.2517      
   2651.3740      
   2556.2664      
   2735.2205      
   2716.1436      
   2463.0750      
   2201.0867      
   1818.2443      
   1400.8734      
   1158.2709      
   1216.3344      
   1366.2030      
   1364.8605      
   1504.4485      
   1746.3875      
   1356.6542      
   1060.8409      
    757.7118      
    650.7767      
    772.7407      
    442.3188      
    375.4700      
    226.3332      
    214.4328      
     21.4608      
    125.7593      
    188.0406      
    205.3291      
     90.2193      
    337.1300      
    301.1848      
    185.6232      
    274.6527      
    220.2081      
    172.5084      
    498.0117      
    426.9937      
    364.1946      
    276.2611      
    119.7982      
    147.6227      
     40.6920      
      0.0000      
     93.5546      
     64.5627      
      0.0000      
      0.0000      
      0.0000      
      0.0000      
     23.9311      
    170.5926      
    227.6727      
    576.7968      
    725.4719      
    698.4263      
    563.4650      
    341.0359      
     29.5629      
      0.0000      
      0.0000      
      0.0000      
     23.1586      
      0.0000      
      0.0000      
     33.8303      
      0.0000      
      0.0000      
      0.0000      
      0.0000      
     97.3703      
     63.0983      
      0.0000      
      0.0000      
      0.0000      
      0.0000      
     71.2351      
      0.0000      
      0.0000      
      0.0000      
      0.0000      
      0.0000      
     18.7820      
      0.0000      
      0.0000      
      0.0000      
      0.0000      
      0.0000      
      0.0000      
      0.0000      
      8.6022      
      0.0000      
      0.0000      
      0.0000      
      0.0000      
      0.0000      
      0.0000      
      0.0000      
      0.0000      
    109.2117      
      0.0000      
      5.1308      
      0.0000      
      0.0000      
      0.0000      
     25.0473      
      0.0000      
      0.0000      
      0.0000      
      0.0000      
      0.0000      
      0.0000      
      0.0000      
      0.0000      
      8.3177      
     41.2791      
      0.0000      
      0.0000      
      0.0000      
      0.0000      
      0.0000      
      0.0000      
     20.5042      
      0.0000      
      0.0000      
      0.0000      
      0.0000      
      0.0000      
      0.0000      
      0.0000      
     27.4214      
      0.0000      
      0.0000      
      0.0000      
     48.6680      
     24.9973      
      0.0000      
      0.0000      
      5.3767      
    137.3447      
      0.0000      
    206.3118      
     92.5344      
      2.9548      
      0.0000      
      0.0000      
      0.0000      
     83.4992      
    278.3391      
    147.0178      
    250.4971      
     53.3225      
    355.7926      
      0.7334      
     83.7854      
    128.7433      
    204.2730      
    463.0066      
    356.0368      
    224.2994      
    207.0887      
    518.1934      
    535.7081      
    732.8468      
    401.7026      
    534.4828      
    417.8341      
    523.8096      
    503.7012      
    641.0911      
    784.6909      
    723.6836      
    580.5185      
   1011.3433      
   1084.1558      
    827.0344      
    968.9965      
    844.8106      
    970.4466      
    923.9952      
   1117.4182      
   1351.2820      
   1355.4933      
    940.5518      
   1210.0072      
   1169.9974      
   1646.5975      
   2006.7001      
   2702.0347      
   3505.6970      
   5348.9019      
   7796.7280      
  10282.1797      
  10290.2412      
   8492.9404      
   6302.6860      
   4772.9380      
   3756.3403      
   3195.2070      
   2589.5862      
   2577.9270      
   2430.7578      
   2664.4097      
   2839.6582      
   2925.5522      
   2569.3513      
   2771.8958      
   2894.5479      
   3019.3064      
   3290.2759      
   3590.1807      
   3950.9690      
   4888.9985      
   5514.1274      
   6077.9556      
   6892.9937      
   7567.0176      
   9283.4004      
  11375.9424      
  14666.4170      
  18253.2656      
  19873.7891      
  17927.5078      
  14987.8330      
  12395.2549      
  10504.9990      
   9185.7930      
   8496.0752      
   8799.8447      
   8703.8545      
   8892.5430      
   8813.1660      
   8236.7891      
   7634.1182      
   7077.6040      
   6933.9126      
   6351.9897      
   6036.6758      
   5950.9531      
   6087.3369      
   6212.6094      
   6492.5068      
   6765.2393      
   7542.9370      
   8103.0273      
   8743.9482      
  10536.1533      
  12670.9463      
  17097.9590      
  21909.1836      
  23963.1426      
  22587.0352      
  20540.4961      
  20161.8633      
  20758.2988      
  18902.4668      
  14684.6035      
  11587.9893      
  10059.1660      
   9641.6602      
   9271.5400      
   8979.0615      
   8708.8359      
   8501.1357      
   8300.7344      
   8579.6035      
   9097.3555      
  10618.0908      
  12484.4941      
  14848.9180      
  17664.6641      
  21231.6836      
  23046.9668      
  20501.6055      
  16447.5566      
  13082.2354      
  11034.5459      
  10022.1426      
   9243.3584      
   9038.6982      
   8824.4072      
   8938.0107      
   9164.8623      
   9807.1152      
  10189.5742      
  10054.1846      
   8743.5566      
   8106.4253      
   7056.7363      
   6789.5210      
   6981.3994      
   7383.9458      
   7692.0879      
   8425.9277      
   9363.3271      
   9561.0762      
   9278.6025      
   8766.5410      
   8866.6270      
   9085.1709      
  10356.4609      
  12219.4453      
  14705.4727      
  15311.3721      
  13645.0850      
  10915.9541      
   8280.0635      
   6731.1602      
   5478.0591      
   4460.8472      
   3722.1763      
   3514.7615      
   2854.0020      
   2463.9504      
   2101.5273      
   1788.2421      
   1835.0183      
   1612.0645      
   1589.6309      
   1519.5865      
   1428.8184      
   1220.5898      
   1235.8375      
   1093.7985      
    999.1193      
    908.8984      
    963.5943      
    774.2121      
    454.6378      
    779.7101      
    548.6693      
    894.0946      
    417.2902      
    496.3767      
    868.2914      
    775.8410      
    880.6284      
    876.5736      
   1084.6849      
   1192.1890      
   1051.7809      
   1271.0933      
   1408.6620      
   1512.0094      
   1631.2576      
   1700.2778      
   1796.3759      
   1305.9541      
    920.6025      
    624.7458      
    510.3754      
    368.4884      
    576.3271      
    292.5778      
    379.2710      
    355.2751      
    227.5558      
    505.2393      
    250.1956      
    194.4951      
    359.4435      
    504.0278      
    714.3806      
   1000.4337      
    636.0388      
    715.8357      
    541.8094      
    437.1978      
     90.3035      
    123.3534      
     65.3046      
     32.3974      
      0.0000      
      0.0000      
    187.0367      
    229.5087      
      0.0000      
      0.0000      
      0.0000      
      0.0000      
      0.0000      
      0.0000      
      0.0000      
      5.1561      
      0.0000      
     63.1584      
      0.0000      
      0.0000      
      0.0000      
      0.0000      
      0.0000      
      0.0000      
      0.0000      
      0.0000      
      0.0000      
    226.1759      
     13.4677      
      0.0000      
      0.0000      
      0.0000      
      0.0000      
      0.0000      
      0.0000      
      0.0000      
      0.0000      
      0.0000      
      0.0000      
      0.0000      
      0.0000      
      0.0000      
      6.0216      
      0.0000      
      0.0000      
      0.0000      
     46.9536      
      0.0000      
      0.0000      
      0.0000      
      0.0000      
      0.0000      
      0.0000      
      0.0000      
      0.0000      
      0.0000      
      0.0000      
      0.0000      
      0.0000      
      0.0000      
     52.6601      
      0.0000      
      0.0000      
      0.0000      
      0.0000      
      0.0000      
      0.0000      
      0.0000      
      0.0000      
     20.0202      
      0.0000      
      0.0000      
      0.0000      
      0.0000      
      0.0000      
      0.0000      
      0.0000      
    100.6679      
      0.0000      
      0.0000      
      0.0000      
      0.0000      
      0.0000      
      0.0000      
      0.0000      
     54.7491      
     12.6471      
    205.4977      
      0.0000      
      0.0000      
     99.7451      
     78.6614      
      0.0000      
    128.8972      
    136.8589      
      0.0000      
     36.6406      
     89.3972      
      0.0000      
      0.0000      
     77.6150      
      7.8394      
      0.0000      
      0.0000      
    141.1268      
      0.0000      
      0.0000      
      0.0000      
    130.6692      
      0.0000      
      0.0000      
      0.0000      
      0.0000      
      6.8804      
     85.9474      
    309.9787      
    374.0067      
    263.4778      
    187.8705      
     12.3215      
    461.0603      
    748.1539      
    952.3893      
    940.1193      
    795.7390      
    425.0576      
    302.3151      
    174.8892      
    136.5487      
     36.3017      
     71.9085      
    186.9272      
    196.2320      
     69.3585      
      0.0000      
      0.0000      
      0.0000      
      0.0000      
     18.1373      
      0.0000      
     28.7233      
    219.0352      
     12.9933      
    123.7668      
      0.0000      
      0.0000      
      0.0000      
      0.0000      
    171.5275      
     63.2322      
    104.1554      
     64.6064      
      0.0000      
      0.0000      
      0.0000      
      9.4204      
      0.0000      
      0.0000      
      0.0000      
      0.0000      
      0.0000      
      0.0000      
      0.0000      
      0.0000      
      0.0000      
      0.0000      
      0.0000      
      0.0000      
      0.0000      
      0.0000      
    139.0764      
      0.0000      
     69.1587      
      0.0000      
     48.1279      
      0.0000      
      0.0000      
     33.7274      
      0.0000      
      0.0000      
      0.0000      
      0.0000      
      0.0000      
      0.0000      
      0.0000      
      0.0000      
      0.0000      
      0.0000      
      0.0000      
      0.0000      
      0.0000      
      0.0000      
    191.3114      
      0.0000      
      0.0000      
      0.0000      
      0.0000      
      0.0000      
      0.0000      
      0.0000      
      0.0000      
      0.0000      
      0.0000      
      0.0000      
      0.0000      
      0.0000      
      0.0000      
      0.0000      
      0.0000      
    223.5992      
      0.0000      
      0.0000      
      0.0000      
      0.0000      
      0.0000      
      0.0000      
      0.0000      
      0.0000      
      0.0000      
    234.4870      
      0.0000      
      0.0000      
      0.0000      
      0.0000      
     50.8226      
      0.0000      
    147.2313      
    206.8440      
      0.0000      
      0.0000      
      0.0000      
     82.6457      
      0.0000      
      0.0000      
      0.0000      
      0.0000      
      0.0000      
      0.0000      
      0.0000      
      0.0000      
      0.0000      
      0.0000      
    135.7582      
      0.0000      
     68.4859      
      0.0000      
      0.0000      
    183.5251      
      0.0000      
      0.0000      
      0.0000      
      0.0000      
     68.6970      
      0.0000      
     54.2538      
      0.0000      
      0.0000      
      0.0000      
      0.0000      
      0.0000      
      0.0000      
      0.0000      
      0.0000      
      0.0000      
      0.0000      
    120.5036      
      0.0000      
      0.0000      
     45.4003      
      0.0000      
      0.0000      
      0.0000      
      0.0000      
      0.0000      
     46.8713      
      0.0000      
      0.0000      
      0.0000      
      0.0000      
      0.0000      
      0.0000      
     29.9347      
      0.0000      
     58.9578      
      0.0000      
      0.0000      
      0.0000      
      0.0000      
      0.0000      
      0.0000      
      0.0000      
     61.7996      
      0.0000      
      0.0000      
      0.0000      
      0.0000      
      0.0000      
      0.0000      
      0.0000      
    179.5707      
      0.0000      
     73.9153      
      0.0000      
      0.0000      
    100.3757      
      0.0000      
      0.0000      
      0.0000      
      0.0000      
      0.0000      
    105.8058      
    231.5715      
     37.3028      
      0.0000      
      0.0000      
      0.0000      
      0.0000      
      0.0000      
    144.3193      
     41.4263      
     96.8144      
    135.1416      
    255.7442      
     12.5757      
      0.0000      
    108.8204      
      0.0000      
     95.6697      
    205.4691      
      0.0000      
      0.0000      
    329.1308      
     85.2383      
    233.4448      
    213.5713      
      6.2992      
    249.4480      
    236.1961      
     57.7033      
    225.6295      
    122.3953      
    290.7718      
    252.2513      
    111.9025      
    296.1656      
    575.8564      
    298.8759      
    705.4460      
   1010.4393      
   1757.4795      
   2432.0908      
   2392.9365      
   2187.9395      
   1466.9056      
   1125.9373      
   1038.0242      
    339.0699      
    500.8982      
    343.1160      
      6.8829      
    311.1921      
    423.3013      
    129.5359      
    251.4316      
    211.6475      
      0.0000      
    222.3047      
    134.9428      
    284.7735      
    371.3909      
     49.2548      
    486.4809      
    498.5743      
    512.0161      
    987.7850      
   1112.6808      
    780.6721      
   1288.0721      
   1303.3438      
   1402.0093      
   1503.8716      
    975.6373      
    833.7988      
    949.7051      
    462.6651      
    664.4509      
    738.8737      
    549.9615      
    734.8578      
    874.8023      
    560.7877      
   1409.2552      
   1495.7684      
   1180.6079      
    915.8250      
    924.0373      
    743.1740      
    566.3330      
    771.6941      
    662.0779      
    593.3220      
    869.6320      
    785.3546      
    932.4157      
    534.2316      
    651.4173      
    781.3768      
   1017.3184      
   1205.8027      
   1415.2451      
   1383.2533      
   1653.2327      
   1205.8953      
   1046.2523      
    827.7474      
    887.6708      
    822.3560      
    601.7972      
    498.3096      
    611.2766      
    377.9236      
     63.6230      
    331.2934      
      0.0000      
    394.0382      
    332.6962      
      0.0000      
    120.4895      
    152.2332      
     29.5675      
     71.7363      
      0.0000      
      0.0000      
      0.0000      
      0.0000      
     85.0360      
      0.0000      
      0.0000      
    173.6306      
    231.9637      
      0.0000      
    201.5100      
      0.0000      
      0.0000      
      0.0000      
    192.3273      
      0.0000      
      0.0000      
      0.0000      
     84.0329      
      0.0000      
      0.0000      
      0.0000      
      0.0000      
      0.0000      
     30.1545      
     49.9250      
      0.0000      
      0.0000      
    122.5324      
      0.0000      
      0.0000      
     34.2576      
      0.0000      
     31.6727      
      0.0000      
    314.9734      
     84.4343      
    468.6034      
     30.4657      
      0.0000      
    353.7221      
    159.8335      
      0.0000      
    420.5523      
      0.0000      
    226.1563      
      0.0000      
      0.0000      
      0.0000      
     20.1844      
      0.0000      
     39.9664      
     12.3581      
      0.0000      
      0.0000      
      0.0000      
      0.0000      
     90.1725      
     32.2224      
      0.0000      
      0.0000      
      0.0000      
      0.0000      
      0.0000      
    279.6881      
      0.0000      
      0.0000      
    226.6362      
      0.0000      
      0.0000      
      0.0000      
      0.0000      
    405.1447      
    369.1150      
      0.0000      
     16.8012      
      0.0000      
      0.0000      
      0.0000      
     85.3714      
      0.0000      
      0.0000      
      9.0621      
     63.0468      
    102.6288      
      0.0000      
      0.0000      
      0.0000      
      0.0000      
      0.0000      
    154.2819      
      0.0000      
      0.0000      
      7.9832      
      0.0000      
      0.0000      
      0.0000      
      0.0000      
     23.8692      
      0.0000      
      0.0000      
      0.0000      
      0.0000      
    173.0796      
    182.3656      
     60.8779      
    202.2781      
      0.0000      
      0.0000      
     49.1088      
    101.8575      
    113.7604      
      0.0000      
      0.0000      
      0.0000      
    406.0570      
     38.7211      
      0.0000      
      0.0000      
      0.0000      
      0.0000      
      0.0000      
      0.0000      
      0.0000      
      0.0000      
      0.0000      
     53.4130      
      0.0000      
    214.6647      
      0.0000      
      0.0000      
     99.6578      
      0.0000      
      0.0000      
      0.0000      
     48.3320      
    161.8571      
      0.0000      
      0.0000      
      0.0000      
      0.0000      
      0.0000      
    209.6511      
    199.0698      
    216.3198      
    273.4183      
    316.0014      
    314.6920      
     92.0908      
      0.0000      
      0.0000      
    195.2595      
     49.9967      
     39.4830      
     93.5307      
    100.1489      
      0.0000      
     63.2706      
    479.2038      
      0.0000      
     92.3345      
    166.3363      
    276.4221      
    428.4316      
    482.0060      
    589.4903      
    617.7982      
    492.7917      
    129.4585      
    604.3850      
    674.5544      
    307.1919      
    529.1254      
    611.2011      
    644.9315      
    333.9015      
    844.1327      
    548.0336      
    479.6058      
    738.3101      
    634.2590      
    631.5812      
    709.9440      
    821.1545      
    654.5763      
    741.1391      
   1069.8320      
   1257.3003      
    853.8943      
    960.2966      
    859.3792      
    982.2162      
    851.2514      
    800.9747      
    909.8754      
   1049.4250      
   1153.9287      
   1118.1539      
   1513.4388      
   1507.8671      
   1507.8867      
   1351.8430      
   1589.1400      
   1888.3256      
   1628.4821      
   1622.8804      
   1683.3693      
   1939.5723      
   2198.4929      
   2774.7231      
   2658.6980      
   2882.4832      
   3136.7168      
   3665.4685      
   4422.3643      
   5009.0938      
   5452.0220      
   7049.4941      
   9216.7627      
  12942.7031      
  17965.5469      
  25558.0352      
  31147.1582      
  34141.5781      
  34350.2656      
  32769.1250      
  29956.3359      
  25009.7832      
  19750.4219      
  15404.1885      
  11917.0723      
   9560.7344      
   7356.9839      
   6233.7578      
   5491.8374      
   4998.1855      
   3999.5803      
   4557.0786      
   4022.8511      
   3650.7046      
   3845.3269      
   3519.8413      
   3177.6772      
   3294.7336      
   3419.9133      
   3799.3127      
   4325.5078      
   4181.6040      
   4347.5215      
   4173.8447      
   4736.9746      
   5030.7695      
   5957.4351      
   6971.3638      
   7571.5415      
   8293.7080      
   8931.5527      
   8602.1582      
   7702.8110      
   6889.4219      
   7152.2876      
   7702.8677      
   7726.3237      
   8137.4326      
   8314.1963      
   8905.2051      
   9637.3613      
  11467.8604      
  12945.8721      
  14393.2832      
  14797.2842      
  14806.9453      
  13046.6895      
  11796.1016      
  10505.2432      
   9505.2363      
   8788.3213      
   8647.4463      
   7925.8496      
   8259.1064      
   8357.0283      
   9106.9980      
   9379.5791      
  10442.8271      
  11747.3389      
  12580.3115      
  13335.8105      
  13884.5137      
  14358.0986      
  14979.0850      
  15047.1914      
  15397.9434      
  15728.7588      
  16533.2051      
  17045.8398      
  17151.8105      
  18312.5176      
  19367.8906      
  20614.3730      
  21366.2598      
  21857.0957      
  20916.1191      
  19417.4512      
  18232.0430      
  17775.7461      
  17569.6641      
  17085.7383      
  16229.9619      
  15836.9688      
  13642.3428      
  11895.0215      
  10332.7012      
   9115.2061      
   8224.7285      
   8191.6338      
   7245.0918      
   6810.4355      
   6784.4077      
   6713.3809      
   6666.7280      
   6376.6167      
   6111.8535      
   6201.5063      
   6301.6973      
   6066.3691      
   5710.0977      
   5660.3535      
   5187.7134      
   4623.7964      
   4273.7563      
   4137.9473      
   3747.2185      
   3331.0017      
   2694.7266      
   2408.8110      
   2472.7273      
   2303.2031      
   1579.0487      
   1572.0607      
   1876.6753      
   1950.5966      
   1905.1112      
   1889.5056      
   1746.5447      
   1109.9041      
   1685.9641      
   1303.2174      
   1521.8207      
   1399.0775      
   1253.4241      
   1196.7947      
    828.3897      
   1063.3347      
   1308.8876      
   1368.5901      
   1210.6880      
   1358.8992      
   1270.1696      
   1473.1167      
   1552.8221      
   1804.7866      
   1448.0604      
   2188.4124      
   2013.7120      
   1656.7496      
   1789.3174      
   2376.0457      
   2718.8208      
   2645.5063      
   2941.6687      
   2482.0740      
   2139.7532      
   2575.3850      
   1912.7791      
   1492.9458      
   1129.7102      
    917.3444      
   1126.9924      
    884.6584      
    811.2161      
    617.7597      
     59.5713      
    472.6860      
    996.7222      
    566.6752      
    685.3199      
    689.3923      
    445.9957      
    289.9523      
      7.0802      
    119.0685      
     59.7448      
    315.2965      
    458.1477      
    201.1344      
    665.2328      
    235.6366      
    274.1583      
    431.4714      
    300.7816      
    387.4128      
   1057.3308      
    509.2291      
   1032.6792      
    818.4421      
    754.6823      
   1343.1052      
    953.3763      
    749.3127      
    934.2906      
    646.5948      
    623.6862      
    434.3867      
    368.9539      
    405.0139      
    221.3742      
    548.4059      
    656.1584      
    232.0345      
    671.0444      
    139.3957      
    419.8311      
    232.1025      
    599.6394      
    447.9697      
    347.8260      
    355.8404      
      0.0000      
     81.4574      
    252.1255      
     77.5376      
      0.0000      
    222.9884      
      0.0000      
     68.3822      
     74.9855      
    195.2274      
     85.5647      
    786.4296      
    501.8092      
    728.1878      
    293.5153      
    281.5668      
    762.1039      
    540.8160      
    425.5835      
    565.0416      
   1110.3040      
    510.0078      
    726.9828      
    632.4326      
    689.1454      
    800.2386      
    849.1799      
   1374.4761      
    984.2619      
   1004.8079      
   1413.4767      
   1264.9794      
   1168.3230      
   1147.6754      
    881.9809      
   1226.3312      
   1146.3478      
   1530.8196      
   1241.5836      
   1709.1656      
   1535.0653      
    927.0917      
   1084.5563      
    738.1621      
   1383.0984      
    727.3637      
   1556.1624      
   1479.2787      
   1454.1816      
   1681.1631      
   2217.6892      
   2623.9512      
   2764.8271      
   3377.2566      
   3777.3850      
   4643.9160      
   6052.2544      
   7036.7080      
   7844.1328      
   8308.8428      
   7631.2583      
   7405.9683      
   6686.9194      
   6010.3101      
   4761.9600      
   4024.2271      
   3849.7808      
   3294.6353      
   3068.6272      
   2728.3433      
   2365.2214      
   2701.9436      
   1795.8180      
   2369.6138      
   2713.7351      
   2317.5796      
   3013.6909      
   3225.7209      
   3347.5032      
   3383.7144      
   3999.6902      
   4094.3123      
   3979.6101      
   4026.0693      
   4308.1816      
   3890.1187      
   4429.2178      
   4930.6021      
   6558.0679      
   7781.2876      
   9177.9648      
  10501.3740      
  12781.0049      
  12721.1904      
  11239.9531      
   9673.0186      
   7859.2476      
   7060.1543      
   6334.0610      
   6380.1128      
   4684.4067      
   4844.1392      
   4748.2026      
   4716.3174      
   5427.9868      
   5282.3687      
   5531.6372      
   5367.3843      
   6310.3848      
   6608.3081      
   7422.7773      
   9101.8564      
  10566.4561      
  13197.5518      
  17847.9492      
  22530.2832      
  27897.6621      
  29800.8496      
  29605.4922      
  28728.1309      
  26406.2227      
  23371.9688      
  19614.6563      
  15311.1172      
  11321.7959      
   9480.8848      
   8367.2393      
   7514.0522      
   6503.7534      
   6484.9082      
   6290.3198      
   6295.4375      
   6569.0796      
   6466.1260      
   7222.7173      
   6924.2603      
   6443.9180      
   6920.8027      
   8241.8574      
   8984.2871      
   9367.0527      
   9096.6045      
   9954.6846      
  10486.0322      
   9644.5107      
   9669.9004      
   9425.0771      
   8765.1348      
   8712.5166      
   8921.8604      
   9290.1738      
  10231.0303      
  10083.6113      
  10737.8838      
  11519.5000      
  13697.5410      
  14462.7012      
  17074.5176      
  18974.8184      
  19550.7227      
  20806.5723      
  21881.2500      
  21494.4902      
  21327.0039      
  18625.6387      
  17396.8828      
  16086.9346      
  14118.2783      
  13477.5957      
  13085.8369      
  12238.1006      
  12335.9512      
  13836.4102      
  14470.0947      
  15247.9971      
  16903.4297      
  17701.8828      
  16811.6816      
  15806.7236      
  13815.6748      
  12489.0596      
  10654.8018      
   9803.6289      
   8011.5684      
   6597.4121      
   7024.6978      
   6133.5669      
   5174.5762      
   4415.0576      
   4411.9238      
   4292.5947      
   4186.3198      
   3582.4773      
   3842.5344      
   3574.9014      
   3112.3645      
   3250.0762      
   3426.3367      
   3107.9336      
   2582.4236      
   2720.1013      
   2387.5374      
   2556.1929      
   1895.6317      
   1833.2528      
   2006.6622      
   1498.5269      
   1388.4355      
   1248.3998      
   1040.5205      
   1392.6517      
    950.2343      
   1048.7903      
    767.9221      
    371.2530      
    321.9661      
    823.6147      
     87.5176      
     94.1249      
    266.1825      
    395.3636      
    658.4777      
    923.0963      
    958.6122      
    351.4022      
    209.2306      
    573.6726      
    374.1141      
    382.1337      
    435.5825      
    241.1254      
    249.1014      
    576.4517      
      0.0000      
     24.5688      
    879.6710      
    630.3740      
    153.8221      
    469.1704      
      0.0000      
      0.0000      
     76.0090      
   1193.6580      
    695.2685      
    711.5076      
   1219.9283      
    370.3913      
    473.3209      
      0.0000      
      0.0000      
      0.0000      
    263.9970      
    241.4481      
   1258.7444      
    618.5076      
      0.0000      
     90.7286      
      0.0000      
    204.4160      
    865.0448      
   1278.2188      
    580.9120      
   1269.9436      
   1739.4185      
   1433.8142      
   1026.2675      
   1089.3881      
    820.2860      
    480.3235      
    525.9318      
    648.4001      
      0.0000      
    318.8091      
      0.0000      
    201.9978      
    332.1641      
    460.3523      
    461.7040      
    505.9373      
    366.8698      
    346.8876      
    308.2935      
    392.2609      
    582.5750      