  11100 12  1   LUAG3    PUC    BMW  .000 U I1 021093 00.01   1        
  PROGRAM LAMBDA-9   VERSION 02.31                                     
  USER BMW DATE & TIME  1993 02 10 15.27 28.58    9.9300    295K U     
 AU1 HO  50     0     0 LUAG             .860000 -  .910000 .00010     
 FILE NAME                                ON PC = LUAG3.SP             
 NO_POINTS  =   501.    pts   DATA_INTV =  .000100 æm                  
 MIN_LAMBDA =   .860000 æm     MIN_DATA =    .77230                    
 MAX_LAMBDA =   .910000 æm     MAX_DATA =   1.08810                    
 SCANSPEED  = 15.000000 NM/MIN SLITWIDTH=   .00000 æm                  
  RESP TIME =   .5      sec SENSITIVITY = 5          DATE=93/02/10     
 14:56:15    93/02/10                                                  
  LUAG3                                                                
  This spectra is part of Database LASERS
 Database LASERS was created by Pat Cross working 
 at NASA Langley Research Center, Internal Operations Group,
 Aerospace Electronics Systems Division, Remote Sensing 
 Technology Branch. phone:(757)864-1633   fax:(757)864-7894 
     e-mail p.l.cross@larc.nasa.gov 
     homepage http://aesd.larc.nasa.gov/laser/dbmain.htm
  EOH     (1X,F11.4)                                                   
   501.         
      0.0000    
      0.0000    
      0.0000    
      0.0000    
      0.0000    
      0.0000    
      0.0000    
      0.0000    
      0.0000    
      6.0865    
     44.8916    
     13.3795    
      0.0000    
      0.0000    
      0.0000    
    100.8518    
     32.8371    
     93.5775    
     32.8623    
     40.1523    
     86.3184    
     15.9290    
     54.7527    
     28.0739    
     32.9376    
     42.6545    
      1.4555    
     76.6808    
    105.8822    
     13.6056    
      0.0000    
     42.7296    
      6.3753    
     76.7559    
     35.4888    
      3.9903    
     69.5028    
     23.4006    
     35.5387    
      0.0000    
     50.1230    
     11.3321    
     25.8878    
      0.0000    
      0.0000    
     30.7743    
      0.0000    
      0.0000    
      0.0000    
     72.0937    
      0.0000    
      4.1896    
      0.0000    
      4.2145    
     28.4607    
     38.1751    
     72.1806    
      0.0000    
      0.0000    
     43.0782    
      9.1466    
      9.1590    
     45.5410    
     72.2673    
     82.0027    
     38.2989    
      0.0000    
      0.0000    
     86.9162    
     50.4828    
      6.8474    
     16.5512    
      0.0000    
      0.0000    
      0.0000    
      0.0000    
      0.0000    
     62.7217    
     60.3062    
     79.7576    
      4.5481    
     31.2196    
      0.0000    
     19.1229    
     21.5580    
     74.9691    
     65.2618    
      0.0000    
     21.6071    
      0.0000    
      0.0000    
      0.0000    
      9.5406    
     36.2185    
     92.0995    
      0.0000    
      0.0000    
     31.4157    
      0.0000    
     67.8508    
     65.4332    
     26.6155    
      0.0000    
     38.7656    
      0.0000    
      0.0000    
     80.0882    
     16.9925    
      0.0000    
     46.1179    
      0.0000    
     85.0110    
     12.2063    
      0.0000    
      0.0000    
     75.3354    
     51.0582    
     14.6904    
      0.0000    
      0.0000    
      0.0000    
      0.0000    
     46.2758    
      5.0729    
     22.0457    
      0.0000    
      0.0000    
     17.2353    
     99.8116    
      0.0000    
      0.0000    
      2.7474    
     60.9645    
     48.8363    
    151.0496    
    187.6885    
     68.2998    
    310.2846    
    190.1692    
    219.5347    
    124.3060    
    224.4545    
    199.9971    
    207.3467    
    234.2869    
    104.8847    
     19.8883    
      2.9402    
     32.0336    
     10.2317    
     90.3454    
    153.6942    
     66.0624    
     36.9453    
     49.0888    
     27.2685    
    122.0615    
     87.9983    
      0.0000    
      0.0000    
    207.5506    
    112.3795    
    232.0528    
    107.5335    
    286.0347    
    288.5031    
    237.0006    
    354.9536    
    528.2125    
    672.9091    
    859.0397    
    793.4618    
    685.4655    
    672.9567    
    650.4485    
    523.3244    
    254.2766    
    330.4447    
    144.2593    
    122.3359    
     34.8415    
      0.0000    
     49.4227    
     30.0259    
    117.5229    
    254.3835    
     88.3437    
     51.9098    
     66.4914    
    127.3264    
    127.3383    
     73.8158    
     20.4367    
      0.0000    
    144.4490    
    276.5815    
    269.2307    
    266.7884    
    318.3915    
    335.6293    
    503.7514    
    703.3524    
    940.4386    
   1144.4377    
   1488.2180    
   1496.0519    
   1454.3809    
   1490.8608    
   1247.2703    
   1098.4308    
    821.6467    
    531.2076    
    264.5127    
    394.9666    
    335.8058    
     98.4157    
     64.3919    
    171.5630    
     61.9876    
    127.6797    
     66.8683    
      0.0000    
    152.0954    
    142.3525    
     96.0878    
    303.9542    
    284.3110    
    201.0050    
    636.0869    
    811.7834    
    801.7159    
   1004.3029    
   1175.5552    
   1142.2263    
   1057.8533    
    842.1260    
    728.8521    
    756.4973    
    457.0827    
    606.2502    
    526.5746    
    444.7371    
    481.9117    
    174.3090    
    247.7213    
    184.1036    
    363.2788    
    123.1342    
    287.0233    
    198.8153    
    225.7420    
    611.3814    
    452.2930    
    519.2711    
    299.3768    
    427.5804    
    571.5456    
    704.0062    
    699.0045    
    586.5304    
    544.2111    
    651.4684    
    284.7292    
    596.5500    
    454.9070    
    316.7131    
    223.4783    
    415.3581    
    430.2041    
    172.1673    
    358.6255    
    248.0335    
    216.2045    
    380.8547    
    221.1234    
    206.4521    
    169.8071    
    245.6511    
    199.1499    
    228.5255    
    326.7263    
    410.5757    
    634.2126    
    659.2250    
    624.2435    
    759.5645    
    769.6353    
    564.4314    
    487.4033    
    346.5236    
    517.2122    
    504.8079    
    346.5579    
    182.2128    
      0.0000    
    167.5828    
    165.1526    
     50.7607    
      0.0000    
    199.3902    
    358.9691    
     65.3744    
    148.1411    
      0.0000    
    341.7697    
      0.0000    
     41.1566    
      0.0000    
      0.0000    
      7.2548    
      0.0000    
      0.0000    
     92.2359    
    277.9475    
    243.6222    
    359.1396    
    322.2151    
    435.7107    
    542.3867    
    423.3679    
    567.2974    
    679.6813    
    642.1649    
    527.5264    
    557.3840    
    557.3954    
     89.9634    
    219.2791    
    393.8210    
    515.1723    
    231.5551    
    136.2779    
    332.2390    
    470.5589    
    212.0170    
    295.3865    
      5.1379    
    283.1295    
     58.5078    
     75.5228    
    231.6677    
    253.7317    
    241.4875    
    248.8520    
    129.1133    
    483.0881    
    517.8464    
    740.1635    
    557.6542    
    667.4806    
    488.1052    
    448.4681    
    371.8840    
    381.7623    
    192.6773    
    217.1460    
    231.8470    
    275.9894    
    396.6273    
     83.0399    
    158.5534    
    170.7696    
    170.7807    
    320.2846    
    246.6355    
    117.1697    
    386.8421    
    258.9260    
    202.6133    
    293.3115    
    418.9951    
     75.8807    
    249.1760    
      0.0000    
    161.1500    
    146.5228    
    127.0351    
      0.0000    
      0.0000    
      0.0000    
      0.0000    
     54.1330    
      0.0000    
      0.0000    
     42.0319    
      0.0000    
     10.5407    
      0.0000    
      0.0000    
     15.4183    
      0.0000    
    144.2626    
      0.0000    
     17.8859    
      0.0000    
      0.0000    
      0.0000    
      0.0000    
      0.0000    
      0.0000    
    158.9970    
      8.2838    
     30.1049    
     22.8437    
      0.0000    
    107.8742    
    156.6226    
      0.0000    
      8.3607    
      0.0000    
      0.0000    
    151.7990    
      0.0000    
     32.6494    
      0.0000    
      0.0000    
      0.0000    
      0.0000    
      0.0000    
      0.0000    
     18.1826    
      0.0000    
      0.0000    
      0.0000    
      0.0000    
     37.6319    
     64.3406    
      0.0000    
      0.0000    
     91.1066    
      0.0000    
      0.0000    
      0.0000    
      0.0000    
      0.0000    
      0.0000    
      0.0000    
      0.0000    
    139.9008    
     28.0848    
    156.9942    
     69.3613    
      0.0000    
      0.0000    
    154.5975    
    174.1346    
    181.4723    
      0.0000    
      0.0000    
      0.0000    
      0.0000    
      0.0000    
      0.0000    
      1.5870    
      0.0000    
      0.0000    
    176.6962    
      0.0000    
      0.0000    
      0.0000    
    132.8273    
    181.6346    
      0.0000    
     33.1931    
      0.0000    
      0.0000    
     40.5026    
    169.4898    
      0.0000    
      0.0000    
      0.0000    
      0.0000    
     98.8690    
      0.0000    
     81.8683    
     60.0136    
    323.9800    
     35.7692    
      0.0000    
    103.8096    
    390.5566    
      0.0000    
    208.7493    
    196.5343    
    108.7314    
      0.0000    
     89.2902    
      0.0000    
    218.6004    
     62.5923    
      0.0000    
      0.0000    
      0.0000    
     62.6350    
      0.0000    
     28.6878    
     43.2490    
      0.0000    
      0.0000    
      0.0000    
      0.0000    
