  11100 11  1   BR253    PO     BMW  .000 U SI 042793 00.01   1        
  PROGRAM LAMBDA-9   VERSION 02.31                                     
  USER BMW DATE & TIME  1993 04 27 09.00 00.00    4.9200    295K P     
 AU1 HO  44     0     0 YLF             1.125000 - 1.225000 .00020     
 FILE NAME                                ON PC = BR253.SP             
 NO_POINTS  =   501.    pts   DATA_INTV =  .000200 æm                  
 MIN_LAMBDA =  1.125000 æm     MIN_DATA =    .76880                    
 MAX_LAMBDA =  1.225000 æm     MAX_DATA =    .94250                    
 SCANSPEED  = 15.000000 NM/MIN SLITWIDTH=   .00000 æm                  
  RESP TIME =   .5      sec SENSITIVITY = 5          DATE=93/04/27     
 OSU SAMPLE--CONC CORRECTED .44%                                       
  This spectra is part of Database LASERS
 Database LASERS was created by Pat Cross working 
 at NASA Langley Research Center, Internal Operations Group,
 Aerospace Electronics Systems Division, Remote Sensing 
 Technology Branch. phone:(757)864-1633   fax:(757)864-7894 
     e-mail p.l.cross@larc.nasa.gov 
     homepage http://aesd.larc.nasa.gov/laser/dbmain.htm
  EOH     (1X,F11.4)                                                   
   501.         
    272.1787    
     94.0594    
     39.7745    
    446.0325    
    153.3757    
    192.9567    
    331.7410    
    396.3206    
    341.6795    
    163.2927    
    133.6341    
    431.1514    
    287.1197    
    292.0854    
    490.9023    
    217.7620    
    356.6207    
    431.1848    
     84.2795    
    138.6278    
    391.4216    
    237.6064    
    242.5668    
    193.0569    
     79.3751    
    351.7067    
     30.0452    
     15.2590    
     84.3352    
      0.0000    
    148.5751    
     15.2813    
      0.0000    
     94.2375    
    163.4319    
      0.0000    
    217.8790    
     84.3854    
    109.0824    
    193.1461    
    277.3600    
    406.4543    
    461.1831    
    396.5212    
    262.5112    
    486.0935    
    361.7556    
    826.0225    
    560.8780    
    501.0591    
    780.9077    
    780.9133    
    660.7772    
    891.3279    
    605.8285    
    665.7944    
    936.5843    
    765.9127    
    826.0839    
    760.9127    
    496.1410    
    806.0358    
    705.8504    
    670.8401    
    881.3402    
    725.8885    
    411.5640    
   1027.2611    
   1082.7306    
   1163.5310    
   1249.5339    
   1188.8173    
   1564.5499    
   2128.7742    
   2195.9170    
   2637.3264    
   2507.0696    
   2637.3374    
   2872.7437    
   2815.0955    
   2335.7056    
   2041.1708    
   1958.8334    
   1498.3822    
   1687.1323    
   1523.8555    
   1671.8118    
   1345.9354    
   1285.0922    
   1488.2368    
   1523.8835    
   1376.4109    
   1758.7949    
   1605.4679    
   1641.2052    
   2103.1001    
   2092.7925    
   2247.7595    
   2403.2451    
   2757.6257    
   3151.6650    
   3591.6895    
   3746.4302    
   4219.1758    
   4019.8257    
   3501.2466    
   3719.7393    
   3310.2651    
   3004.2112    
   2647.9526    
   2082.5571    
   1810.1249    
   2221.9797    
   1758.9130    
   2041.3561    
   2113.5310    
   1876.8308    
   2165.1604    
   2533.3267    
   2752.5093    
   2951.7148    
   2862.4988    
   2852.0173    
   3099.0625    
   2873.0022    
   2878.2534    
   2642.8286    
   2118.7585    
   2201.3896    
   2304.8860    
   2227.2534    
   2538.6072    
   2315.2664    
   2279.0156    
   2747.3623    
   2804.9370    
   3130.7703    
   3725.2532    
   3703.8948    
   4106.1260    
   4615.2446    
   4316.6851    
   4305.8682    
   3891.1936    
   3305.1785    
   3278.7246    
   2909.8523    
   2831.1941    
   2820.7229    
   2294.6404    
   2491.8762    
   2978.1658    
   2873.1602    
   3560.0339    
   4235.6641    
   4948.7402    
   6465.4409    
   7887.2554    
   8440.0625    
   9155.5215    
   8540.7578    
   7659.8525    
   7346.7974    
   6488.1611    
   6075.9971    
   6087.2446    
   5583.9854    
   5411.9072    
   5684.2119    
   5467.3594    
   5489.5605    
   5456.2783    
   5339.9629    
   5561.7876    
   5124.7188    
   4463.2041    
   4004.1060    
   3300.0737    
   2570.1223    
   2502.4460    
   1969.6720    
   1856.6715    
   1815.6520    
   1169.2251    
   1295.7679    
   1346.4880    
   1108.6292    
   1270.4515    
    836.8531    
    646.5534    
    947.4000    
    912.2039    
    486.9208    
    751.6465    
    506.8586    
    307.9888    
    571.6880    
    278.2435    
    631.6143    
    601.6543    
     45.8203    
    337.8015    
    427.2528    
    387.4828    
    422.2896    
    114.9636    
     31.0579    
    641.6603    
    308.0626    
    576.7526    
    636.6796    
    233.7211    
    288.2445    
    546.8452    
    651.6942    
    776.8248    
    776.8305    
    347.8210    
    706.7304    
    816.9600    
    561.8476    
    671.7316    
    606.7760    
    342.8892    
    987.8512    
    751.8284    
    666.7591    
    786.9164    
    283.3789    
    701.7883    
    786.9335    
    377.7021    
    847.1396    
    661.7986    
    442.3589    
    576.9005    
    646.8207    
    611.8559    
    852.1944    
    522.0643    
    387.6935    
    776.9729    
    676.8527    
    756.9412    
    581.9431    
    392.6898    
    792.0388    
    691.8860    
    562.0072    
    917.5616    
    686.9000    
    591.9642    
    942.7220    
    676.9155    
    691.9260    
    872.3759    
    596.9856    
    747.0043    
   1063.6284    
    877.4191    
   1073.7286    
    872.4102    
    532.1668    
   1149.4664    
   1210.1412    
    952.8557    
   1194.9786    
    852.3600    
   1038.4795    
   1341.8920    
    967.9789    
   1235.4844    
   1028.4214    
   1109.1249    
   1494.3729    
   1580.9956    
   1397.7737    
   1800.8190    
   1606.5168    
   1530.0497    
   1657.5846    
   1489.3253    
   1347.0409    
   1514.7902    
   1235.5588    
   1321.6940    
   1713.8439    
   1245.6993    
   1377.5283    
   1159.7228    
   1255.8451    
   1489.3827    
   1377.5513    
   1271.0562    
   1570.9044    
   1089.0634    
   1094.1129    
   1586.2196    
   1084.0342    
   1413.1464    
   1210.3475    
    917.8594    
   1255.9139    
   1210.3647    
    943.0199    
    948.0566    
    772.3327    
    747.2909    
   1144.6746    
    988.3375    
   1149.7360    
   1169.9558    
    837.5612    
   1003.4667    
   1321.8605    
   1089.1782    
   1469.1719    
   1550.6462    
   1387.8551    
   1934.4795    
   2057.9832    
   2207.6584    
   2394.1382    
   2472.0647    
   2800.7764    
   3285.0396    
   3401.6028    
   3865.4421    
   4096.4302    
   4812.7983    
   4698.0918    
   5092.5898    
   5357.4756    
   4938.7876    
   5114.6226    
   5318.7700    
   5186.2554    
   5696.3276    
   5379.6523    
   5335.3843    
   5646.1963    
   5302.2197    
   4900.4663    
   5048.6592    
   4118.0684    
   3817.3484    
   3903.0747    
   3476.0496    
   3726.4573    
   3822.7222    
   3523.9128    
   4107.3359    
   3919.1995    
   3956.7720    
   4361.2070    
   4534.8555    
   4649.1680    
   5103.7480    
   4993.8062    
   5098.2554    
   5191.9087    
   4415.4424    
   4236.8530    
   4166.6904    
   3301.1443    
   2947.8589    
   2461.9141    
   2032.4969    
   2120.1345    
   1627.4561    
   1474.5720    
   1525.4849    
   1059.2407    
    722.6346    
   1180.4313    
    832.9059    
    913.2643    
    787.7781    
    617.6614    
    627.6558    
    817.8845    
    557.7833    
    702.6675    
    522.8923    
    304.1112    
    602.7216    
    448.2065    
    453.1896    
    682.6917    
    294.2213    
    343.8490    
    453.2128    
    567.8257    
    572.8187    
    413.4331    
     12.4212    
    348.8498    
    343.8896    
    363.7597    
    473.1706    
     81.5135    
    210.0555    
    423.4272    
     46.9864    
    121.0487    
    294.3141    
      0.0000    
    150.7208    
    274.4972    
    249.7241    
    368.7976    
    116.1478    
      0.0000    
    244.7920    
     71.7236    
    254.7119    
    155.7185    
      0.0000    
     22.4135    
    398.6642    
     32.2888    
    274.5728    
    428.5181    
     12.5840    
    324.1909    
    324.1967    
    234.9586    
    573.0164    
    349.0359    
    165.6834    
    478.3309    
    344.0874    
    697.9540    
    533.1542    
    314.3260    
    468.4008    
    652.9728    
    508.2567    
    618.0103    
    418.6685    
    319.3238    
    672.9996    
    508.2859    
    344.1574    
    428.6463    
    299.5079    
    478.4243    
    458.5166    
    344.1866    
    274.7361    
    289.6162    
      0.0000    
    180.6569    
    249.9806    
    126.2793    
    141.1146    
      0.0000    
      0.0000    
    101.6033    
      0.0000    
      0.0000    
     62.1258    
      0.0000    
      2.9581    
      0.0000    
      0.0000    
      7.9051    
      0.0000    
      0.0000    
     47.3714    
     12.8585    
     42.4494    
    250.0918    
      0.0000    
      0.0000    
    364.2089    
     27.6838    
    264.9874    
    264.9933    
    121.4865    
    349.3399    
    339.4173    
     96.8044    
    399.0381    
    156.1158    
    180.8501    
    314.6302    
    161.0792    
    185.8162    
    583.3610    
      0.0000    
    240.2930    
    369.2768    
    225.4464    
    369.2885    
    205.6535    
      0.0000    
    349.4397    
    126.5372    
    195.7793    
     87.0357    
